# 2013-02-06 12:23:16 PST
# Colorimeter Data
# LED red
# -----------------------------
# Concentration | Absorbance
0.0  0.00  
0.305  0.13  
0.305  0.13  
0.305  0.13  
0.610  0.30  
0.610  0.28  
0.610  0.25  
0.915  0.43  
0.915  0.42  
0.915  0.42  
1.220  0.58  
1.220  0.57  
1.220  0.58  
1.525  0.73  
1.525  0.73  
1.525  0.76  
1.830  0.88  
1.830  0.87  
1.830  0.84  
2.135  1.03  
2.135  1.02  
2.135  1.04  
2.440  1.17  
2.440  1.18  
2.440  1.17  
